Refractive Indices of NaCl as given by Toon et al. as a compilation 
from various sources.
     Wavelength (m)  Real Part       Imaginary Part
*BEGIN_DATA
     2.00000e-07     1.79000e+00     1.00000e-07
     2.20000e-07     1.72000e+00     1.00000e-07
     2.40000e-07     1.67000e+00     1.00000e-07
     2.80000e-07     1.62000e+00     1.00000e-07
     3.00000e-07     1.61000e+00     1.00000e-07
     3.50000e-07     1.58000e+00     1.00000e-07
     4.00000e-07     1.57000e+00     1.00000e-07
     5.00000e-07     1.55000e+00     1.00000e-07
     1.00000e-06     1.53000e+00     1.00000e-07
     3.00000e-06     1.52000e+00     1.00000e-07
     7.00000e-06     1.51000e+00     1.00000e-07
     9.00000e-06     1.50000e+00     1.00000e-07
     1.00000e-05     1.49000e+00     1.00000e-07
     1.10000e-05     1.49000e+00     1.90000e-07
     1.20000e-05     1.48000e+00     8.00000e-07
     1.30000e-05     1.47000e+00     2.70000e-06
     1.40000e-05     1.46000e+00     7.80000e-06
     1.50000e-05     1.45000e+00     2.00000e-05
     1.60000e-05     1.44000e+00     4.40000e-05
     1.70000e-05     1.43000e+00     9.00000e-05
     1.80000e-05     1.41000e+00     1.70000e-04
     1.90000e-05     1.40000e+00     3.00000e-04
     2.00000e-05     1.38000e+00     5.10000e-04
     2.10000e-05     1.37000e+00     8.20000e-04
     2.20000e-05     1.34000e+00     1.30000e-03
     2.30000e-05     1.31000e+00     1.90000e-03
     2.40000e-05     1.28000e+00     2.70000e-03
     2.50000e-05     1.25000e+00     3.80000e-03
     2.60000e-05     1.23000e+00     5.20000e-03
     2.70000e-05     1.21000e+00     7.00000e-03
     2.80000e-05     1.17000e+00     9.20000e-03
     2.90000e-05     1.13000e+00     1.20000e-02
     3.00000e-05     1.09000e+00     1.50000e-02
     3.20000e-05     9.70000e-01     4.00000e-02
     3.40000e-05     8.20000e-01     8.00000e-02
     3.60000e-05     6.10000e-01     1.80000e-01
     3.80000e-05     4.50000e-01     4.80000e-01
     4.00000e-05     5.20000e-01     7.00000e-01
     4.20000e-05     4.60000e-01     7.30000e-01
     4.40000e-05     2.70000e-01     9.50000e-01
     4.60000e-05     1.80000e-01     1.30000e+00
     4.80000e-05     1.70000e-01     1.60000e+00
     5.00000e-05     1.80000e-01     2.00000e+00
     5.20000e-05     2.20000e-01     2.50000e+00
     5.40000e-05     3.10000e-01     3.80000e+00
     5.60000e-05     4.90000e-01     4.30000e+00
     5.80000e-05     1.02000e+00     5.10000e+00
     5.90000e-05     1.73000e+00     6.00000e+00
     6.00000e-05     3.49000e+00     7.20000e+00
     6.10000e-05     6.81000e+00     6.30000e+00
     6.20000e-05     7.46000e+00     3.20000e+00
     6.30000e-05     6.54000e+00     1.60000e+00
     6.40000e-05     5.77000e+00     9.90000e-01
     6.50000e-05     5.22000e+00     6.80000e-01
     7.00000e-05     3.93000e+00     2.00000e-01
     8.00000e-05     3.16000e+00     1.00000e-01
     9.00000e-05     2.88000e+00     7.00000e-02
     1.00000e-04     2.74000e+00     6.00000e-02
     1.00000e-02     2.74000e+00     6.00000e-02
*END
