Refractive Index of Dust Particles following Balkanski
et al., Atmos. Chem. Phys., 2007.
     Wavelength (m)  Real Part       Imaginary Part
*BEGIN_DATA
    2.000000e-07    1.520000e+00    1.560000e-03
    2.500000e-07    1.520000e+00    1.560000e-03
    3.000000e-07    1.520000e+00    1.560000e-03
    3.370000e-07    1.520000e+00    1.550000e-03
    4.000000e-07    1.520000e+00    1.621112e-03
    4.880000e-07    1.520000e+00    1.710909e-03
    5.150000e-07    1.520000e+00    1.540000e-03
    5.500000e-07    1.520000e+00    1.470000e-03
    6.330000e-07    1.518000e+00    1.544667e-03
    6.940000e-07    1.517000e+00    1.290000e-03
    8.600000e-07    1.516550e+00    9.395000e-04
    1.060000e-06    1.515000e+00    6.688799e-04
    1.300000e-06    1.513000e+00    6.012000e-04
    1.536000e-06    1.513000e+00    5.367143e-04
    1.800000e-06    1.512000e+00    4.709047e-04
    2.000000e-06    1.510000e+00    4.733617e-04
    2.250000e-06    1.507788e+00    4.945962e-04
    2.500000e-06    1.506211e+00    6.722631e-04
    2.700000e-06    1.505000e+00    1.099355e-03
    3.000000e-06    1.503000e+00    1.776522e-03
    3.200000e-06    1.500000e+00    2.247297e-03
    3.392000e-06    1.498899e+00    2.709621e-03
    3.500000e-06    1.497000e+00    2.967407e-03
    3.750000e-06    1.493195e+00    3.608506e-03
    4.000000e-06    1.486774e+00    4.273119e-03
    4.500000e-06    1.452779e+00    5.777885e-03
    5.000000e-06    1.413947e+00    7.699474e-03
    5.500000e-06    1.359414e+00    9.544768e-03
    6.000000e-06    1.289522e+00    2.344349e-02
    6.200000e-06    1.241667e+00    3.740558e-02
    6.500000e-06    1.129693e+00    1.663134e-01
    7.200000e-06    1.388333e+00    8.054665e-02
    7.900000e-06    1.081994e+00    5.119890e-02
    8.200000e-06    7.920103e-01    2.551162e-01
    8.500000e-06    1.011514e+00    5.039483e-01
    8.700000e-06    1.092834e+00    5.515880e-01
    9.000000e-06    1.296783e+00    7.136521e-01
    9.200000e-06    1.376930e+00    7.580940e-01
    9.500000e-06    2.136091e+00    8.433779e-01
    9.800000e-06    2.536509e+00    6.311748e-01
    1.000000e-05    2.483000e+00    4.110000e-01
    1.059100e-05    1.947377e+00    1.263935e-01
    1.100000e-05    1.825451e+00    1.434706e-01
    1.150000e-05    1.808382e+00    1.348852e-01
    1.250000e-05    1.626766e+00    1.602623e-01
    1.300000e-05    1.723455e+00    1.147886e-01
    1.400000e-05    1.461508e+00    1.649535e-01
    1.480000e-05    1.502356e+00    1.240522e-01
    1.500000e-05    1.465835e+00    1.252116e-01
    1.640000e-05    1.250333e+00    2.583703e-01
    1.720000e-05    1.198944e+00    4.134547e-01
    1.800000e-05    1.168517e+00    5.934715e-01
    1.850000e-05    1.188300e+00    7.756302e-01
    2.000000e-05    1.424028e+00    9.500754e-01
    2.130000e-05    1.666126e+00    1.488933e+00
    2.250000e-05    2.837273e+00    8.743269e-01
    2.500000e-05    1.920530e+00    6.515208e-01
    2.790000e-05    2.072567e+00    3.928534e-01
    3.000000e-05    1.849070e+00    5.921047e-01
    3.500000e-05    1.667861e+00    5.380000e-01
    4.000000e-05    1.634796e+00    5.547961e-01
    1.000000e-02    1.634000e+00    5.540000e-01
*END
