Refractive Index of Oceanic Particles as given in SRA
     Wavelength (m)  Real Part       Imaginary Part
*BEGIN_DATA
     2.00000e-07     1.42900e+00     2.87000e-05
     2.50000e-07     1.40400e+00     1.45000e-06
     3.00000e-07     1.39500e+00     5.83000e-07
     3.37000e-07     1.39200e+00     1.20000e-07
     4.00000e-07     1.38500e+00     9.90000e-09
     4.88000e-07     1.38200e+00     6.41000e-09
     5.15000e-07     1.38100e+00     3.70000e-09
     5.50000e-07     1.38100e+00     4.26000e-09
     6.33000e-07     1.37700e+00     1.62000e-08
     6.94000e-07     1.37600e+00     5.04000e-08
     8.60000e-07     1.37200e+00     1.09000e-06
     1.06000e-06     1.36700e+00     6.01000e-05
     1.30000e-06     1.36500e+00     1.41000e-04
     1.53600e-06     1.35900e+00     2.43000e-04
     1.80000e-06     1.35100e+00     3.11000e-04
     2.00000e-06     1.34700e+00     1.07000e-03
     2.25000e-06     1.33400e+00     8.50000e-04
     2.50000e-06     1.30900e+00     2.39000e-03
     2.70000e-06     1.24900e+00     1.56000e-02
     3.00000e-06     1.43900e+00     1.97000e-01
     3.20000e-06     1.48100e+00     6.69000e-02
     3.39200e-06     1.43900e+00     1.51000e-02
     3.50000e-06     1.42300e+00     7.17000e-03
     3.75000e-06     1.39800e+00     2.90000e-03
     4.00000e-06     1.39900e+00     3.69000e-03
     4.50000e-06     1.37700e+00     9.97000e-03
     5.00000e-06     1.36600e+00     9.57000e-03
     5.50000e-06     1.33300e+00     9.31000e-03
     6.00000e-06     1.30600e+00     7.96000e-02
     6.20000e-06     1.43100e+00     6.91000e-02
     6.50000e-06     1.37400e+00     2.94000e-02
     7.20000e-06     1.34300e+00     2.49000e-02
     7.90000e-06     1.32400e+00     2.79000e-02
     8.20000e-06     1.32400e+00     3.08000e-02
     8.50000e-06     1.33600e+00     3.36000e-02
     8.70000e-06     1.36600e+00     3.56000e-02
     9.00000e-06     1.37300e+00     3.65000e-02
     9.20000e-06     1.35600e+00     3.71000e-02
     9.50000e-06     1.33900e+00     3.68000e-02
     9.80000e-06     1.32400e+00     3.88000e-02
     1.00000e-05     1.31000e+00     4.06000e-02
     1.05910e-05     1.27100e+00     5.22000e-02
     1.10000e-05     1.24600e+00     7.31000e-02
     1.15000e-05     1.22700e+00     1.05000e-01
     1.25000e-05     1.20800e+00     1.90000e-01
     1.30000e-05     1.22100e+00     2.23000e-01
     1.40000e-05     1.26700e+00     2.71000e-01
     1.48000e-05     1.30700e+00     2.92000e-01
     1.50000e-05     1.32100e+00     2.97000e-01
     1.64000e-05     1.40700e+00     3.31000e-01
     1.72000e-05     1.48700e+00     3.41000e-01
     1.80000e-05     1.52500e+00     3.41000e-01
     1.85000e-05     1.53600e+00     3.39000e-01
     2.00000e-05     1.56000e+00     3.24000e-01
     2.13000e-05     1.56800e+00     3.18000e-01
     2.25000e-05     1.57900e+00     3.16000e-01
     2.50000e-05     1.59600e+00     3.13000e-01
     2.79000e-05     1.61200e+00     3.20000e-01
     3.00000e-05     1.61400e+00     3.20000e-01
     3.50000e-05     1.59700e+00     3.83000e-01
     4.00000e-05     1.58200e+00     5.61000e-01
     1.00000e-01     1.00000e+00     0.00000e+00
*END
