 Refractive index of fresh biomass aerosol from
 SAFARI 2000 measurements.
 Uses a Maxwell-Garnett rule, mixing black
 carbon with another material at 1.53 - 0.0i
 Scaled to fit aircraft measurements at 550 nm.       
 BC is 7.5% of the total mass
      Wavelength (m)  Real Part       Imaginary Part
*BEGIN_DATA
  2.00000e-07      1.53809    0.0311016
  2.50000e-07      1.53809    0.0311016
  3.00000e-07      1.54665    0.0312897
  3.37000e-07      1.54733    0.0311800
  4.00000e-07      1.54722    0.0305025
  4.88000e-07      1.54711    0.0298259
  5.15000e-07      1.54711    0.0298259
  5.50000e-07      1.54701    0.0291501
  6.33000e-07      1.54691    0.0284751
  6.94000e-07      1.54691    0.0284751
  8.60000e-07      1.54691    0.0284751
  1.06000e-06      1.54701    0.0291501
  1.30000e-06      1.54779    0.0297211
  1.53600e-06      1.54857    0.0302864
  1.80000e-06      1.55013    0.0313999
  2.00000e-06      1.55091    0.0319479
  2.25000e-06      1.55170    0.0324900
  2.50000e-06      1.55249    0.0330260
  2.70000e-06      1.55327    0.0335561
  3.00000e-06      1.55420    0.0347355
  3.20000e-06      1.55551    0.0344591
  3.39200e-06      1.55629    0.0349668
  3.50000e-06      1.55708    0.0354683
  3.75000e-06      1.55852    0.0358134
  4.00000e-06      1.55994    0.0361444
  4.50000e-06      1.56135    0.0364614
  5.00000e-06      1.56338    0.0366029
  5.50000e-06      1.56477    0.0368889
  6.00000e-06      1.56675    0.0369924
  6.20000e-06      1.56744    0.0371220
  6.50000e-06      1.56812    0.0372484
  7.20000e-06      1.56965    0.0380789
  7.90000e-06      1.57348    0.0381444
  8.20000e-06      1.57423    0.0385245
  8.50000e-06      1.57554    0.0387080
  8.70000e-06      1.57610    0.0385182
  9.00000e-06      1.57684    0.0388797
  9.20000e-06      1.57739    0.0386874
  9.50000e-06      1.57813    0.0390397
  9.80000e-06      1.57877    0.0391153
  1.00000e-05      1.57941    0.0391881
  1.05910e-05      1.58014    0.0395250
  1.10000e-05      1.58067    0.0393254
  1.15000e-05      1.58140    0.0396532
  1.25000e-05      1.58317    0.0395669
  1.30000e-05      1.58389    0.0398773
  1.40000e-05      1.58572    0.0400179
  1.48000e-05      1.58704    0.0403470
  1.50000e-05      1.58704    0.0403470
  1.64000e-05      1.58894    0.0406879
  1.72000e-05      1.59012    0.0407380
  1.80000e-05      1.59118    0.0405429
  1.85000e-05      1.59175    0.0405617
  2.00000e-05      1.59404    0.0406149
  2.13000e-05      1.59471    0.0408490
  2.25000e-05      1.59583    0.0408555
  2.50000e-05      1.59760    0.0410680
  2.79000e-05      1.59934    0.0412535
  3.00000e-05      1.60105    0.0414126
  3.50000e-05      1.60440    0.0416561
  4.00000e-05      1.60741    0.0414296
     0.100000      1.49251     0.000000
*END_DATA
