Refractive Index of Solid Methane
REFERENCES: J. V. Martonchik and G. S. Orton. Optical constants of liquid and solid methane, https://doi.org/10.1364/AO.33.008306, Appl. Opt. 33, 8306-8317 (1994)
CAUTION: don't rely on interpolated values: Most data points represent values at local maxima or minima
SPECS: temperature: 90 K

     Wavelength (m)  Real Part       Imaginary Part
*BEGIN_DATA
     0.00200e-06     0.97100e+00     0.00000e+00
     0.01140e-06     0.99300e+00     2.60700e-03
     0.05450e-06     0.84200e+00     2.33200e-01
     0.09000e-06     1.22800e+00     7.09600e-01
     0.09870e-06     1.49100e+00     5.68100e-01
     0.10120e-06     1.48600e+00     5.20300e-01
     0.10870e-06     1.55400e+00     4.10400e-01
     0.11620e-06     1.51500e+00     3.51800e-01
     0.12000e-06     1.53000e+00     3.63200e-01
     0.13370e-06     1.76700e+00     1.98100e-01
     0.20000e-06     1.32600e+00     1.90000e-05
     0.40000e-06     1.32600e+00     1.90000e-05
     1.00000e-06     1.31300e+00     1.90000e-05
     1.13800e-06     1.31300e+00     1.90000e-05
     1.16500e-06     1.31300e+00     4.57700e-05
     1.33600e-06     1.31200e+00     5.02300e-05
     1.37100e-06     1.31200e+00     1.82800e-05
     1.38500e-06     1.31200e+00     9.07300e-06
     1.40200e-06     1.31200e+00     3.64200e-05
     1.41200e-06     1.31200e+00     2.36800e-05
     1.66900e-06     1.31100e+00     4.73700e-04
     1.72400e-06     1.31100e+00     2.44600e-04
     1.78500e-06     1.31100e+00     8.21300e-05
     1.79600e-06     1.31100e+00     1.80700e-04
     2.31700e-06     1.30700e+00     3.45300e-03
     2.32400e-06     1.31000e+00     6.18900e-03
     2.32900e-06     1.31400e+00     3.09600e-03
     2.37700e-06     1.30600e+00     5.05800e-03
     2.37900e-06     1.31200e+00     9.19900e-03
     2.38100e-06     1.31600e+00     5.54700e-03
     3.31500e-06     1.19000e+00     1.31200e-01
     3.32200e-06     1.33900e+00     2.56400e-01
     3.33000e-06     1.45100e+00     1.10700e-01
     3.53400e-06     1.31800e+00     2.87700e-03
     3.54600e-06     1.31900e+00     4.57400e-03
     3.56500e-06     1.32100e+00     2.57000e-03
     7.67500e-06     0.81000e+00     4.58500e-01
     7.69200e-06     1.26500e+00     9.59800e-01
     7.71000e-06     1.84500e+00     5.19900e-01
     3.63600e-05     1.31600e+00     7.62400e-04
     6.25000e-05     1.31700e+00     2.63600e-03
     1.00000e-04     1.31800e+00     2.38700e-03
     1.00000e-01     1.31800e+00     2.38700e-03
*END
