Refractive Index of Liquid Methane
REFERENCES: J. V. Martonchik and G. S. Orton. Optical constants of liquid and solid methane, https://doi.org/10.1364/AO.33.008306, Appl. Opt. 33, 8306-8317 (1994)
CAUTION: don't rely on interpolated values: Most data points represent values at local maxima or minima
SPECS: temperature: 90 K

     Wavelength (m)  Real Part       Imaginary Part
*BEGIN_DATA
     0.00200e-06     1.00100e+00     0.00000e+00
     0.05450e-06     0.85600e+00     2.13700e-01
     0.09000e-06     1.20900e+00     6.50100e-01
     0.10000e-06     1.44800e+00     4.85300e-01
     0.10120e-06     1.44600e+00     4.76800e-01
     0.10870e-06     1.50800e+00     3.76100e-01
     0.11620e-06     1.47200e+00     3.22500e-01
     0.12000e-06     1.48600e+00     3.33600e-01
     0.13370e-06     1.70400e+00     1.81400e-01
     0.20000e-06     1.30000e+00     1.23700e-09
     0.40000e-06     1.30000e+00     1.23700e-09
     0.58310e-06     1.29200e+00     1.23700e-09
     0.59830e-06     1.29200e+00     1.16700e-09
     0.62150e-06     1.29100e+00     1.95100e-07
     0.66960e-06     1.29000e+00     4.77100e-09
     0.68560e-06     1.29000e+00     2.67500e-09
     0.70570e-06     1.29000e+00     8.38100e-09
     0.71740e-06     1.29000e+00     1.15600e-07
     0.72990e-06     1.29000e+00     9.90700e-08
     0.78490e-06     1.28900e+00     3.99500e-08
     0.79940e-06     1.28900e+00     6.10300e-08
     0.84180e-06     1.28900e+00     4.99800e-08
     0.86730e-06     1.28800e+00     3.31100e-07
     0.88850e-06     1.28800e+00     1.89900e-06
     0.97420e-06     1.28800e+00     4.95800e-07
     0.98720e-06     1.28800e+00     6.28100e-07
     1.00000e-06     1.28800e+00     8.31300e-07
     1.01400e-06     1.28800e+00     1.00600e-06
     1.23500e-06     1.28700e+00     1.67700e-07
     1.24100e-06     1.28700e+00     8.42500e-08
     1.93200e-06     1.28500e+00     1.57400e-06
     1.95300e-06     1.28500e+00     8.94700e-07
     3.29000e-06     1.24300e+00     3.19800e-02
     3.33000e-06     1.27800e+00     7.46200e-02
     3.37000e-06     1.31100e+00     3.73100e-02
     3.43000e-06     1.30100e+00     2.13200e-02
     3.57000e-06     1.30300e+00     1.06600e-02
     7.59000e-06     1.19500e+00     7.72800e-02
     7.69000e-06     1.27500e+00     1.70600e-01
     7.80000e-06     1.36500e+00     7.99400e-02
     8.13000e-06     1.32600e+00     2.13500e-01
     8.26000e-06     1.33200e+00     1.06700e-02
     4.16700e-05     1.29100e+00     6.64500e-04
     7.14300e-05     1.29200e+00     1.44200e-03
     1.00000e-01     1.29200e+00     1.44200e-03
*END
