PhotoComp-2011
*PROFILE
PRESS(MB) TEMP(K) O3(NONE)
933.0     299.9    3.844E-08
757.7     289.5    4.704E-08
568.2     278.8    4.720E-08
426.1     267.2    4.972E-08
319.5     253.9    5.551E-08
239.6     239.7    5.977E-08
179.7     224.6    6.390E-08
134.75    209.4    9.012E-08
101.05    198.2    1.486E-07
75.77     195.8    3.885E-07 
56.82     203.1    1.533E-06
42.61     209.9    3.790E-06
31.95     215.5    6.849E-06
23.96     220.1    1.034E-05
17.97     224.5    1.326E-05
13.475    228.9    1.577E-05
10.105    233.3    1.653E-05
7.577     237.8    1.670E-05
5.682     242.6    1.578E-05
4.261     248.3    1.363E-05
3.195     254.1    1.236E-05
2.396     259.5    9.733E-06
1.797     262.9    8.158E-06
1.348     265.1    6.721E-06
1.010     266.9    5.511E-06
0.758     264.7    4.810E-06
0.568     261.8    4.009E-06
0.426     259.7    3.325E-06
0.320     254.3    2.820E-06
0.240     247.0    2.323E-06
0.180     239.4    1.909E-06
0.135     234.4    1.585E-06
0.101     232.7    1.335E-06
0.076     226.4    1.102E-06
0.057     216.4    8.927E-07
0.043     210.8    7.372E-07
0.032     208.0    6.168E-07
0.024     205.2    5.162E-07
0.018     202.4    4.317E-07
0.013     199.4    3.607E-07
0.010     197.6    3.032E-07
0.0076    197.6    3.032E-07
*END

Temperature on levels:
*PROFILE
PRESS(MB) TLEV(K)
1000.0     299.9
866.0      294.970
649.4      284.534
487.0      273.416
365.2      261.027
273.8      247.309
205.4      232.691
154.0      217.545
115.5      204.202
86.60      197.086
64.94      199.188
48.70      206.256
36.52      212.499
27.38      217.635
20.54      222.142
15.40      226.542
11.55      230.942
8.660      235.389
6.494      240.028
4.870      245.246
3.652      250.992
2.738      256.606
2.054      261.078
1.540      263.921
1.155      265.935
0.8660     265.879
0.6494     263.354
0.4870     260.825
0.3652     257.192
0.2738     250.912
0.2054     243.472
0.1540     237.079
0.1155     233.611
0.08660    229.773
0.06494    221.758
0.04870    213.797
0.03652    209.503
0.02738    206.700
0.02054    203.900
0.01540    201.021
0.01155    198.559
0.00866    197.6
0.00649    197.6
*END

Surface Temperature:
*PROFILE
PRESS(MB)  TSTAR(K)
1000.0     299.9
*END
